MASS=Monoisotopic
BEGIN IONS
TITLE=File851 Spectrum903 scans: 1247
PEPMASS=523.74719 5098.32227
CHARGE=2+
RTINSECONDS=817
SCANS=1247
102.05528 1446.69
102.93818 920.24
110.07110 5282.09
112.08676 4351.89
115.08649 2788.08
116.07006 2146.07
129.10197 6400.23
130.08665 1227.52
140.08104 1328.36
147.11227 2014.44
155.09271 778.302
157.10786 3432.92
158.09180 4384.17
175.11859 30701.4
195.08566 921.592
199.10870 1442.24
201.08582 1010.59
226.11696 1546.89
227.10170 1827.16
241.08028 2061.76
241.12933 4338.8
246.15356 1175.39
251.11131 973.169
252.09831 1658.2
252.14575 1998.87
269.12366 6157.06
286.15073 1938
287.13547 2699.18
295.15039 5580.31
304.16107 21207.8
305.16248 1703.6
312.17664 1580.04
350.21692 2349.54
355.15897 858.365
380.15793 984.767
387.26944 4222.67
397.18011 1024.87
398.16708 1596.25
433.20340 4496.73
457.25031 1887.63
460.23337 1679.42
464.47513 1022.1
468.22122 1067.15
485.25174 1810.25
502.72897 1283.02
506.23196 1209.11
507.30304 3240.6
514.24347 1906.36
514.74750 1760.31
515.23279 26768.6
515.73389 7503.59
523.25134 5467.06
523.31171 4095.7
523.74585 92669.3
524.24524 41048.8
524.32977 53877.4
529.31012 922.779
562.24658 1104.89
569.25653 898.726
583.46692 1504.55
586.29736 2651.41
597.26245 3359.46
614.28601 7883.73
615.29419 1402.82
633.27747 3654.63
643.37445 857.512
660.35870 859.099
698.30688 1460.46
715.33514 8059.59
716.34473 2212.62
726.30420 3121.66
743.33032 13663.8
744.32874 4457.91
761.34302 4109.75
762.35809 1023.03
788.41205 1103.51
800.35645 923.231
827.35815 1633.32
832.38684 1050.07
844.37738 5534.76
845.38391 1905.31
855.34601 1210.72
872.37335 6406.33
873.36652 4235.83
890.38477 8970.21
891.39014 2358.58
987.43359 2496.85
1018.75183 851.654
END IONS

BEGIN IONS
TITLE=File851 Spectrum904 scans: 1249
PEPMASS=499.26285 279278.15625
CHARGE=2+
RTINSECONDS=818
SCANS=1249
102.93864 1299.77
105.06596 1629.81
110.07119 18228.2
112.08625 1522.66
129.06610 4070.43
129.10228 5987.74
130.08612 2309.06
147.07607 4590.86
147.11255 5864.08
157.06111 2102.22
157.13344 97859.1
158.09192 1483.6
158.13718 3051.57
169.13246 3464.18
173.12894 2508.01
175.07130 3178.11
175.11899 17833.9
185.12845 28033.3
192.09628 1658.17
197.12827 8079.29
201.12369 3741.2
204.13434 4940.54
216.09837 3347.12
221.10400 1327.76
226.15416 2164.59
240.09930 1954.88
244.16589 5422.9
246.15601 12186.5
248.11421 1864.01
249.09789 2425.19
254.15053 3929.04
256.14081 11968.7
266.12433 7500.57
272.16086 4266.55
285.12103 1901.04
296.19702 4321.88
303.20230 11208.9
311.16391 7015.69
311.65607 7418.43
312.15637 2266.89
320.16992 2324.14
321.67081 2598.5
323.16837 1553.24
337.16058 2848.73
346.16571 1557.27
354.67990 3943.67
355.17300 1541.65
357.18686 4241.04
363.68625 12655.4
364.18851 2890.09
374.21472 22781.9
375.21121 2166.12
377.15863 1795.1
380.67401 1514.3
389.19089 3613.79
389.68549 2971.37
398.19754 5514.1
398.69101 4302.81
399.18686 1708.69
407.20157 32276.8
407.70413 6109.65
412.19522 5168.48
440.18912 3984.2
440.74942 1475.71
455.23178 2019.56
463.74326 9490.21
464.24426 3269.23
464.51303 1599.83
490.26285 1709.7
490.74890 3036.46
494.24902 4522.4
498.74454 1428.06
499.33481 8400.22
505.27475 3067.88
511.27325 41429.3
512.27570 5719.38
568.24658 5651.55
583.89795 1870.18
583.98016 1849.78
596.31091 2070.75
622.31177 4569.68
639.33685 15338.5
640.34845 2577.23
642.33319 4027.59
643.36810 2108.1
694.37030 1528.97
709.33191 3928.08
716.02228 1416.15
726.36383 32064.2
727.36713 5062.3
741.39825 1887.9
777.37500 2488.73
778.36713 1541.31
783.37439 2220.74
795.38684 6286.92
796.37280 10218.5
797.37311 1602.47
813.39532 102242
814.40027 26198.8
926.48132 1573.07
979.25098 1658.67
END IONS

BEGIN IONS
TITLE=File851 Spectrum949 scans: 1298
PEPMASS=480.26135 80121.94531
CHARGE=2+
RTINSECONDS=836
SCANS=1298
110.07129 2023.62
127.04932 339.492
127.08665 456.612
129.06543 384.581
129.10228 14868.7
130.08623 2845.01
131.08130 530.052
133.04311 500.367
136.07544 1692.41
141.10287 470.692
145.09714 7173.9
147.11272 4153.05
155.08200 479.947
159.07634 429.426
160.84209 381.74
167.08171 402.837
169.09775 580.424
171.11307 768.731
173.09201 3470.33
175.11893 1229.94
181.09741 584.462
184.10835 4086.78
187.14420 354.347
198.12347 1881.14
199.10872 536.442
208.11002 409.366
209.09193 8436.93
213.63905 330.111
225.13480 519.154
226.11864 3862.18
234.14444 464.211
240.13191 400.459
243.14560 647.272
248.16125 718.336
252.13266 370.269
256.12885 890.596
270.14636 432.198
274.13974 553.821
278.11414 328.702
282.10498 403.179
298.09720 812.34
300.11957 3207.42
305.18246 2135.15
307.14365 2415.69
308.17026 517.978
319.18713 1184.47
327.16452 520.089
357.14188 390.793
359.19272 954.625
360.22452 596.41
385.20819 712.833
393.69946 379.376
394.19974 432.184
400.25616 1339.45
400.75763 546.299
409.23270 957.535
413.20096 854.036
416.22409 496.662
418.26630 3155.81
423.24033 365.299
428.23035 1049.47
444.20309 1600.3
445.20416 409.311
449.75552 577.176
452.23871 443.951
461.27832 527.319
470.22345 431.256
471.24637 386.597
479.29422 1967.57
479.79514 2310.99
480.24860 1443.51
480.30576 825.158
480.74530 378.42
515.23627 2254.44
530.36609 457.068
533.29413 915.252
553.26636 1129.5
571.26892 682.556
583.57446 815.064
589.27802 460.51
614.30603 1422.19
620.32855 1701.37
629.36218 1392.67
630.36792 623.225
640.29810 336.925
684.35785 474.791
685.34558 1806.43
699.36768 1673.52
700.39893 641.809
712.40106 1431.38
713.41290 782.657
714.39063 425.739
717.37738 13362.7
756.41010 727.598
783.47516 368.639
784.49152 560.913
786.39307 1587.71
787.43085 1309.05
788.43634 644.713
898.50012 438.991
END IONS

BEGIN IONS
TITLE=File851 Spectrum1798 scans: 2233
PEPMASS=710.69958 542582.62500
CHARGE=3+
RTINSECONDS=1219
SCANS=2233
102.90826 4163.1
103.82070 3917.31
110.07123 156140
111.07439 7507.19
119.36422 3757.08
129.10225 46255
130.08615 35914.1
136.07574 40810.3
145.09688 4670.76
147.11256 49261.4
155.08185 11074.5
157.13408 4487.33
212.10271 23390.5
223.15678 4096.95
226.11900 18099
235.11803 7423.84
240.13342 11955.9
244.16814 5582.66
247.13026 12535.5
251.14943 8969.61
258.09741 11154.1
258.14456 28867.6
259.15134 5911.83
272.13721 6592.23
275.12518 27968.8
276.15475 16751.7
311.17123 26977.6
311.21109 4563.19
322.18796 5607.47
325.15460 7497.13
331.15179 8664.45
339.15295 8326.09
347.19226 24183.6
354.21185 5315.48
372.22351 4318.29
382.20786 11616.8
387.67517 4926.48
388.21249 6165.37
397.71140 12098.3
398.21347 8272.85
416.19174 14599.5
431.24762 4488.95
443.19366 7175.46
446.26352 7220.59
448.23105 5380.02
451.70877 25195
452.21225 11179.2
459.24106 5949.68
466.24139 18942.8
466.74417 7223.23
508.24921 15865.9
508.74930 7307.17
511.25006 16610.8
514.23682 39944.8
515.23712 4838.69
529.26514 4535.57
543.76953 7412.04
544.27716 4649.51
558.30377 5353.12
560.30286 9952.18
562.27307 4316.46
562.61481 9960.15
583.21344 6517.05
583.29877 6173.28
583.38409 5160.86
585.29504 6401.31
586.30524 7657.88
595.62646 5329.98
639.34735 4652.23
643.36926 6949.48
649.30511 18235
650.31360 5003.37
657.35638 117862
658.35840 33065.1
659.35999 6610.25
668.84564 22728.2
669.34351 18396.2
670.34027 5576.64
677.30084 46246.2
678.30359 14380.9
710.34082 11413
710.70117 16849.9
711.03094 20031.7
711.35754 14201.3
723.37073 11474.7
723.88287 10528.9
732.38849 4987.51
737.37036 25916.6
737.87433 17468.1
738.37225 4944.48
769.41772 4474.99
770.39185 5911.44
776.40216 17751.9
777.40735 8431.39
785.37585 4242.19
794.41693 44586.8
795.41919 15177.1
815.44971 4199.98
831.37433 39466.8
832.36865 12893.5
835.39667 5457.64
842.91687 23242.3
843.42279 9065.94
843.93201 7466.96
874.41772 17571.6
875.42523 5735.61
878.46320 7349.75
878.96857 7114.91
879.44598 6265.85
892.46368 12537.4
892.96112 7726.83
893.44470 6910.88
902.41156 81152.1
903.41589 30253.9
904.41455 4256.45
914.45648 4691.09
919.46332 4631.64
928.47675 11164.1
931.48016 23038.3
932.47656 11690.8
987.50757 17361.7
988.50867 8415.32
992.49823 9561.92
993.00513 8948.92
993.51172 5436.78
1015.48871 13681.1
1016.49701 7619.78
1044.55627 9703.18
1045.56116 4584.57
1058.53955 19129.6
1059.53564 8427.68
1086.53052 42840.1
1087.53174 25232.8
1088.53210 5419.07
1097.53674 4208.85
1103.48267 5029.07
1115.60083 13947.5
1116.58862 7962.2
1171.62427 47859.6
1172.62463 26884
1199.62061 54887.7
1200.61572 35241.6
1201.61328 11276.6
1308.66980 8778.38
1309.66687 7131.91
1336.67749 28015.6
1337.67224 15575.9
1338.65869 5853.9
1473.71338 6008.01
1667.71179 5270.41
1668.21130 7184.75
1857.99158 11773.5
1913.98889 7619.82
1961.60730 5669.98
END IONS

BEGIN IONS
TITLE=File851 Spectrum3028 scans: 3586
PEPMASS=831.94910 487785.71875
CHARGE=2+
RTINSECONDS=1666
SCANS=3586
102.90626 1125.1
102.99683 1224.47
110.07202 1261.86
115.08672 1290.89
120.08110 3476.06
129.10262 3354.04
130.06483 1419.77
130.08594 1793.01
136.07578 32637.5
143.11877 1592.41
147.11267 4338.13
157.13354 1628.36
159.09181 3635.01
167.08232 1153.98
181.09798 2270.42
185.12772 1357.69
185.16499 63357.6
186.16878 4573.72
199.10808 2858.07
199.18071 1998.08
200.13765 1415.39
201.12379 2428.9
209.09076 2921.62
212.10307 17599
213.11507 1353.11
213.16006 37992.3
214.16455 2256.39
227.10304 3263.19
229.11742 3252.88
233.12874 40392.4
234.13406 1949
242.18820 1247.79
244.10901 1490.85
249.16005 12467.8
258.12445 3302.22
260.19714 7441.88
261.12363 45597
262.12988 3268.54
268.16583 2399.66
277.15552 2924.82
315.14532 4434.26
324.18912 1452.4
325.18765 13781.9
332.15884 1983.96
341.28033 1185.24
342.20157 4227.92
343.19739 2687.96
344.16019 5209.37
346.21112 2751.99
357.21613 2624.54
372.15436 4193.73
374.20831 20557.7
375.16196 1542.42
375.21100 1966.29
390.16531 1253.29
417.25061 2835.75
432.19159 1577.12
445.24448 12640.3
446.24713 2000.95
450.21436 2451.11
453.28458 3549.65
454.26654 10419.3
455.26910 1488.01
457.24463 10194.9
458.24786 1801.81
460.24786 1627.89
471.29303 84535.3
472.29669 14135.3
478.21390 1740.45
485.24045 7090.72
488.25644 1332.39
503.25342 1160.1
517.28595 1640.32
545.27551 4046.49
546.26331 1861.86
556.27435 4465.79
563.30493 2106.95
582.77924 2967.98
591.29559 1332.66
603.33179 3109.77
631.32111 2402.64
634.35791 10095.2
635.36060 2175.19
643.35468 1195.17
660.25623 1494.72
661.34851 2958.46
688.34674 3395.45
691.37787 26948.9
692.38300 7114.74
703.34705 1212.16
731.35425 2082.09
733.85046 1235.73
802.37982 1285.41
823.41705 3847.62
831.46112 1175.94
851.40485 4383.94
860.43805 2046.21
877.45593 26415.3
878.46503 10620.1
948.49524 29939.6
949.49585 12822.4
1061.57776 11519.5
1062.58496 6298.88
1224.66589 4551.4
1225.63977 3235.83
1321.69995 10867
1322.69983 7693
1450.74573 2992.41
1668.72864 2297.82
1669.25928 1668.3
END IONS



BEGIN IONS
TITLE=File851 Spectrum3474 scans: 4076
PEPMASS=972.44922 77506.85938
CHARGE=2+
RTINSECONDS=1851
SCANS=4076
101.07104 20758.5
102.90456 1571.75
103.05421 2518.58
120.08092 73317.6
121.08457 3554.58
129.06654 3201.35
129.10233 7045.02
130.08621 6416.55
133.06107 4174.82
147.07669 2161.59
147.11299 14516.1
191.11792 2129.17
196.14494 2317.96
197.12869 6834.03
214.15520 10633.6
217.09714 7875.8
217.13362 9452.44
224.13948 1719.06
225.12273 2118.43
226.08142 2173.2
227.06557 2954.42
231.06172 2302.57
233.16486 6537.57
235.10791 16386.1
242.14954 6897.35
244.09323 24795
245.07745 2484.12
245.12856 12620.7
260.19720 17070.4
261.16025 3645.65
262.15704 1872.24
263.10297 37872.6
264.10654 3483.33
267.15039 2354.89
277.11774 2666.64
280.12943 14060.9
295.14624 3147.8
312.15506 4032.68
322.14111 3670.07
331.16299 1567.97
332.10721 2185.67
340.14902 3422.46
346.13864 2443.35
346.18164 1364.94
357.17792 11657.9
359.26544 13812.1
360.27109 1959.78
363.16757 7209.64
367.15619 1919.05
372.19324 2948.23
373.15210 3455.69
374.17126 40313.9
375.17542 6257.11
376.18753 4005.43
378.12976 4167.09
385.17252 3040.48
391.16159 68725
392.16504 8006.44
410.17300 3417.22
427.19946 2077.76
429.12259 1937.4
441.21399 5529.31
445.24457 5267.02
446.25626 1425.33
447.13937 2497.77
459.22342 7608.81
464.47626 1717.56
470.29596 3393
473.23996 26662.7
474.24185 4609.82
476.25217 6653.53
486.23727 2939.48
487.21506 2558.84
488.30881 11959.6
489.20081 6587.9
489.31702 1833.08
493.20694 3684.66
504.24487 12720.9
505.25040 2835.46
507.17422 3017.61
538.23505 2571.1
544.15540 2452.55
558.22211 2983.86
558.32904 4052.1
562.16852 2206.09
576.23120 6035.35
583.46118 3307.68
586.32385 9506.33
587.32104 1962.67
588.27020 5417.24
606.29053 3865.41
635.37494 2902.09
643.34448 1978.87
651.31219 1995.32
675.30609 4398.83
705.26971 1849.09
709.22607 4598.97
710.24854 2488.12
714.41791 3247.36
732.42987 75525.3
733.43329 25865.2
734.44189 1909.63
804.33655 2178.56
806.28491 2777.18
820.29504 3368.87
822.31616 2283.49
847.45709 5971.67
848.45447 3236.51
919.37012 2923.83
934.49011 9719.59
935.33752 6383.11
936.33020 2087.62
953.35931 2116.08
1034.39075 3939.45
1045.51404 1706.81
1063.53308 5306.76
1064.51318 2704.96
1082.39697 4646.51
1163.45569 1615.51
1178.56616 9564.33
1179.57520 2897.94
1181.46924 3819.28
1276.54431 1763.38
1293.58423 17994.1
1294.58240 8903.4
1440.65710 16669.6
1441.65869 11062.3
1553.72852 2322.67
1554.78076 2304.16
1857.92334 2346.32
1871.44189 1554.31
END IONS

